DEPTH (FT)	CALI (IN)	GR (GAPI)	NPHISS	RHOB (G/C3)	RILD (OHMM)	SP (MV)	RFOC (OHMM)
10000	10.307	100.112	0.467	2.277	0.606	-4.299	0.632
10000.25	10.313	100.662	0.465	2.277	0.603	-4.414	0.634
10000.5	10.321	101.039	0.463	2.277	0.599	-4.436	0.636
10000.75	10.328	101.283	0.462	2.277	0.596	-4.371	0.636
10001	10.334	101.553	0.462	2.277	0.593	-4.254	0.632
10001.25	10.338	101.988	0.461	2.277	0.591	-4.136	0.627
10001.5	10.34	102.598	0.46	2.277	0.589	-4.05	0.621
10001.75	10.34	103.171	0.458	2.276	0.588	-4.005	0.616
10002	10.341	103.429	0.457	2.276	0.589	-3.989	0.613
10002.25	10.341	103.2	0.456	2.276	0.59	-4.007	0.613
10002.5	10.343	102.442	0.455	2.276	0.591	-4.095	0.615
10002.75	10.345	101.225	0.455	2.277	0.594	-4.314	0.622
10003	10.35	99.649	0.454	2.278	0.598	-4.703	0.634
10003.25	10.359	97.854	0.452	2.28	0.601	-5.248	0.652
10003.5	10.37	96.08	0.45	2.282	0.605	-5.875	0.674
10003.75	10.387	94.576	0.446	2.285	0.608	-6.455	0.697
10004	10.409	93.585	0.442	2.288	0.611	-6.849	0.717
10004.25	10.436	93.24	0.439	2.29	0.614	-6.958	0.729
10004.5	10.469	93.411	0.436	2.293	0.618	-6.765	0.729
10004.75	10.503	93.835	0.436	2.294	0.621	-6.331	0.719
10005	10.536	94.364	0.437	2.296	0.625	-5.756	0.703
10005.25	10.563	94.94	0.44	2.295	0.629	-5.139	0.685
10005.5	10.582	95.609	0.444	2.295	0.632	-4.553	0.67
10005.75	10.593	96.436	0.448	2.293	0.635	-4.045	0.659
10006	10.599	97.324	0.451	2.291	0.636	-3.636	0.652
10006.25	10.602	98.069	0.453	2.288	0.637	-3.32	0.65
10006.5	10.604	98.611	0.453	2.285	0.637	-3.08	0.652
10006.75	10.606	98.963	0.452	2.282	0.636	-2.905	0.656
10007	10.609	99.202	0.45	2.279	0.636	-2.776	0.661
10007.25	10.612	99.449	0.448	2.276	0.636	-2.675	0.667
10007.5	10.616	99.734	0.447	2.274	0.636	-2.586	0.672
10007.75	10.619	99.908	0.447	2.272	0.637	-2.498	0.676
10008	10.62	99.943	0.448	2.27	0.639	-2.407	0.679
10008.25	10.619	99.863	0.451	2.269	0.64	-2.316	0.682
10008.5	10.616	99.602	0.454	2.268	0.642	-2.23	0.684
10008.75	10.611	99.225	0.457	2.268	0.643	-2.154	0.686
10009	10.607	98.827	0.458	2.268	0.645	-2.091	0.687
10009.25	10.604	98.434	0.459	2.268	0.647	-2.04	0.688
10009.5	10.603	98.197	0.46	2.268	0.649	-1.996	0.688
10009.75	10.603	98.291	0.46	2.268	0.651	-1.955	0.688
10010	10.603	98.8	0.46	2.269	0.653	-1.918	0.688
10010.25	10.603	99.658	0.458	2.27	0.655	-1.886	0.689
10010.5	10.603	100.55	0.458	2.27	0.658	-1.863	0.69
10010.75	10.605	101.07	0.457	2.271	0.66	-1.85	0.692
10011	10.609	100.928	0.457	2.272	0.662	-1.851	0.695
10011.25	10.614	100.206	0.456	2.273	0.663	-1.871	0.698
10011.5	10.62	99.22	0.454	2.275	0.665	-1.914	0.702
10011.75	10.626	98.314	0.452	2.276	0.666	-1.979	0.706
10012	10.631	97.741	0.449	2.278	0.667	-2.06	0.71
10012.25	10.636	97.495	0.447	2.28	0.668	-2.138	0.714
10012.5	10.639	97.442	0.444	2.282	0.669	-2.196	0.718
10012.75	10.641	97.513	0.441	2.284	0.67	-2.224	0.722
10013	10.642	97.831	0.439	2.286	0.671	-2.233	0.724
10013.25	10.643	98.559	0.438	2.287	0.671	-2.238	0.725
10013.5	10.643	99.725	0.438	2.289	0.671	-2.253	0.724
10013.75	10.644	101.145	0.44	2.29	0.671	-2.286	0.721
10014	10.644	102.472	0.443	2.291	0.671	-2.339	0.716
10014.25	10.645	103.353	0.446	2.291	0.67	-2.408	0.711
10014.5	10.646	103.748	0.449	2.291	0.668	-2.487	0.705
10014.75	10.647	103.844	0.451	2.29	0.667	-2.568	0.7
10015	10.647	103.934	0.451	2.29	0.666	-2.639	0.695
10015.25	10.648	104.201	0.451	2.29	0.665	-2.688	0.692
10015.5	10.649	104.651	0.449	2.289	0.664	-2.711	0.691
10015.75	10.651	105.056	0.445	2.29	0.663	-2.711	0.691
10016	10.655	105.197	0.441	2.29	0.663	-2.703	0.694
10016.25	10.656	105.006	0.436	2.291	0.663	-2.702	0.697
10016.5	10.65	104.521	0.431	2.293	0.662	-2.718	0.7
10016.75	10.632	104.022	0.428	2.295	0.662	-2.743	0.702
10017	10.604	103.792	0.427	2.297	0.662	-2.755	0.703
10017.25	10.569	103.85	0.428	2.3	0.663	-2.73	0.705
10017.5	10.535	104.027	0.429	2.302	0.664	-2.656	0.707
10017.75	10.509	104.059	0.43	2.305	0.665	-2.537	0.71
10018	10.496	103.635	0.432	2.308	0.666	-2.391	0.713
10018.25	10.495	102.725	0.433	2.31	0.667	-2.238	0.715
10018.5	10.5	101.617	0.435	2.312	0.668	-2.097	0.715
10018.75	10.508	100.803	0.437	2.313	0.669	-1.979	0.714
10019	10.514	100.676	0.441	2.314	0.67	-1.885	0.711
10019.25	10.517	101.313	0.445	2.315	0.67	-1.806	0.708
10019.5	10.518	102.325	0.448	2.315	0.669	-1.726	0.705
10019.75	10.518	103.182	0.45	2.315	0.668	-1.627	0.702
10020	10.518	103.561	0.451	2.315	0.667	-1.497	0.699
10020.25	10.518	103.427	0.45	2.315	0.665	-1.333	0.697
10020.5	10.518	103.046	0.449	2.315	0.664	-1.147	0.696
10020.75	10.518	102.796	0.447	2.315	0.664	-0.968	0.695
10021	10.517	102.818	0.445	2.315	0.664	-0.827	0.694
10021.25	10.516	102.98	0.443	2.315	0.665	-0.756	0.692
10021.5	10.513	103.04	0.443	2.315	0.666	-0.785	0.691
10021.75	10.509	102.717	0.442	2.315	0.667	-0.948	0.691
10022	10.505	101.929	0.442	2.315	0.669	-1.271	0.694
10022.25	10.5	100.877	0.441	2.315	0.67	-1.741	0.699
10022.5	10.495	99.8	0.44	2.316	0.671	-2.29	0.708
10022.75	10.491	98.904	0.438	2.316	0.672	-2.823	0.719
10023	10.488	98.433	0.435	2.316	0.674	-3.255	0.728
10023.25	10.485	98.565	0.434	2.316	0.676	-3.553	0.734
10023.5	10.482	99.187	0.434	2.316	0.678	-3.746	0.734
10023.75	10.48	100.008	0.436	2.316	0.681	-3.904	0.73
10024	10.478	100.67	0.438	2.316	0.683	-4.09	0.724
10024.25	10.476	100.92	0.44	2.315	0.686	-4.328	0.719
10024.5	10.476	100.752	0.441	2.315	0.687	-4.593	0.717
10024.75	10.476	100.322	0.441	2.314	0.688	-4.832	0.716
10025	10.475	99.796	0.439	2.313	0.688	-5.013	0.717
10025.25	10.475	99.375	0.437	2.312	0.688	-5.134	0.718
10025.5	10.474	99.182	0.435	2.312	0.687	-5.2	0.718
10025.75	10.475	99.217	0.435	2.31	0.686	-5.227	0.717
10026	10.477	99.373	0.435	2.309	0.686	-5.232	0.715
10026.25	10.48	99.766	0.437	2.308	0.685	-5.232	0.712
10026.5	10.483	100.517	0.438	2.307	0.684	-5.244	0.709
10026.75	10.483	101.439	0.439	2.306	0.682	-5.277	0.706
10027	10.477	102.144	0.439	2.305	0.681	-5.332	0.704
10027.25	10.467	102.359	0.438	2.303	0.68	-5.395	0.702
10027.5	10.455	102.065	0.436	2.301	0.679	-5.446	0.7
10027.75	10.443	101.376	0.433	2.299	0.678	-5.468	0.699
10028	10.434	100.479	0.431	2.297	0.678	-5.455	0.698
10028.25	10.427	99.643	0.431	2.295	0.678	-5.416	0.699
10028.5	10.421	99.106	0.431	2.292	0.678	-5.372	0.701
10028.75	10.416	98.925	0.433	2.289	0.679	-5.337	0.704
10029	10.413	98.995	0.436	2.287	0.679	-5.316	0.706
10029.25	10.418	99.233	0.438	2.285	0.68	-5.302	0.707
10029.5	10.438	99.72	0.44	2.283	0.682	-5.281	0.706
10029.75	10.476	100.439	0.441	2.282	0.684	-5.252	0.703
10030	10.531	101.299	0.442	2.281	0.686	-5.227	0.7
10030.25	10.592	102.136	0.443	2.282	0.689	-5.228	0.697
10030.5	10.65	102.897	0.445	2.283	0.692	-5.273	0.696
10030.75	10.695	103.58	0.447	2.286	0.696	-5.376	0.697
10031	10.728	104.034	0.45	2.288	0.7	-5.538	0.698
10031.25	10.753	103.98	0.452	2.293	0.706	-5.759	0.7
10031.5	10.779	103.353	0.453	2.297	0.711	-6.046	0.704
10031.75	10.811	102.146	0.452	2.303	0.718	-6.411	0.709
10032	10.847	100.422	0.447	2.308	0.725	-6.858	0.716
10032.25	10.883	98.464	0.438	2.314	0.731	-7.374	0.727
10032.5	10.916	96.647	0.427	2.32	0.738	-7.929	0.741
10032.75	10.947	95.135	0.415	2.325	0.744	-8.488	0.757
10033	10.982	93.885	0.404	2.329	0.749	-9.027	0.774
10033.25	11.025	92.832	0.394	2.332	0.755	-9.555	0.788
10033.5	11.074	91.977	0.387	2.335	0.76	-10.098	0.8
10033.75	11.128	91.359	0.382	2.336	0.765	-10.68	0.807
10034	11.183	91	0.379	2.337	0.77	-11.303	0.81
10034.25	11.242	90.879	0.376	2.337	0.774	-11.937	0.809
10034.5	11.307	90.93	0.373	2.336	0.778	-12.536	0.806
10034.75	11.38	91.1	0.371	2.334	0.781	-13.061	0.802
10035	11.458	91.342	0.368	2.333	0.783	-13.495	0.797
10035.25	11.539	91.643	0.366	2.331	0.784	-13.839	0.792
10035.5	11.61	91.893	0.365	2.33	0.786	-14.102	0.789
10035.75	11.656	91.905	0.364	2.329	0.787	-14.292	0.786
10036	11.662	91.58	0.364	2.328	0.789	-14.411	0.784
10036.25	11.624	91.018	0.365	2.328	0.79	-14.466	0.782
10036.5	11.552	90.502	0.366	2.328	0.792	-14.479	0.782
10036.75	11.463	90.342	0.366	2.328	0.795	-14.469	0.782
10037	11.377	90.551	0.366	2.329	0.796	-14.447	0.782
10037.25	11.305	90.917	0.365	2.329	0.798	-14.412	0.782
10037.5	11.248	91.148	0.364	2.33	0.798	-14.367	0.782
10037.75	11.196	91.004	0.362	2.331	0.798	-14.321	0.783
10038	11.142	90.609	0.362	2.332	0.797	-14.288	0.785
10038.25	11.089	90.398	0.363	2.332	0.795	-14.274	0.789
10038.5	11.046	90.627	0.365	2.333	0.793	-14.278	0.794
10038.75	11.024	91.19	0.365	2.333	0.791	-14.289	0.798
10039	11.022	91.78	0.365	2.334	0.789	-14.294	0.801
10039.25	11.034	92.123	0.363	2.333	0.787	-14.288	0.802
10039.5	11.05	92.116	0.361	2.333	0.785	-14.287	0.802
10039.75	11.061	91.84	0.359	2.332	0.784	-14.312	0.801
10040	11.066	91.39	0.357	2.331	0.782	-14.37	0.8
10040.25	11.066	90.823	0.355	2.33	0.781	-14.442	0.8
10040.5	11.066	90.241	0.353	2.329	0.779	-14.488	0.8
10040.75	11.066	89.715	0.353	2.327	0.778	-14.467	0.799
10041	11.066	89.384	0.353	2.326	0.776	-14.358	0.797
10041.25	11.063	89.427	0.354	2.325	0.774	-14.175	0.793
10041.5	11.057	89.889	0.356	2.324	0.771	-13.958	0.79
10041.75	11.046	90.58	0.358	2.323	0.769	-13.758	0.787
10042	11.032	91.282	0.36	2.323	0.767	-13.601	0.786
10042.25	11.017	91.847	0.362	2.323	0.765	-13.484	0.786
10042.5	11.003	92.245	0.364	2.323	0.763	-13.376	0.787
10042.75	10.993	92.521	0.367	2.324	0.763	-13.234	0.788
10043	10.988	92.699	0.368	2.325	0.762	-13.029	0.788
10043.25	10.987	92.814	0.37	2.326	0.763	-12.762	0.788
10043.5	10.992	92.989	0.37	2.327	0.763	-12.466	0.788
10043.75	11.007	93.276	0.37	2.328	0.764	-12.194	0.788
10044	11.043	93.686	0.369	2.329	0.764	-11.989	0.788
10044.25	11.105	94.177	0.367	2.329	0.765	-11.869	0.787
10044.5	11.193	94.598	0.365	2.33	0.765	-11.831	0.785
10044.75	11.298	94.768	0.364	2.329	0.765	-11.858	0.782
10045	11.402	94.573	0.363	2.329	0.765	-11.931	0.779
10045.25	11.481	93.983	0.364	2.328	0.765	-12.03	0.776
10045.5	11.512	93.188	0.365	2.326	0.764	-12.132	0.774
10045.75	11.485	92.532	0.367	2.325	0.763	-12.201	0.773
10046	11.405	92.28	0.37	2.323	0.762	-12.205	0.772
10046.25	11.295	92.451	0.373	2.321	0.762	-12.118	0.772
10046.5	11.183	92.898	0.377	2.319	0.761	-11.946	0.771
10046.75	11.093	93.333	0.381	2.317	0.76	-11.722	0.769
10047	11.041	93.401	0.386	2.315	0.759	-11.496	0.767
10047.25	11.021	93.033	0.389	2.314	0.758	-11.302	0.766
10047.5	11.017	92.539	0.39	2.312	0.758	-11.147	0.764
10047.75	11.011	92.271	0.391	2.311	0.758	-11.015	0.763
10048	10.992	92.423	0.39	2.31	0.758	-10.893	0.761
10048.25	10.963	92.889	0.391	2.309	0.759	-10.789	0.759
10048.5	10.935	93.363	0.392	2.308	0.76	-10.716	0.757
10048.75	10.917	93.69	0.394	2.307	0.761	-10.686	0.755
10049	10.913	93.853	0.397	2.307	0.762	-10.695	0.753
10049.25	10.922	94.005	0.4	2.306	0.762	-10.733	0.752
10049.5	10.935	94.321	0.402	2.306	0.763	-10.785	0.752
10049.75	10.943	94.814	0.405	2.306	0.763	-10.833	0.753
10050	10.947	95.264	0.407	2.305	0.763	-10.86	0.755
10050.25	10.95	95.35	0.409	2.305	0.763	-10.848	0.758
10050.5	10.954	94.952	0.411	2.305	0.763	-10.781	0.762
10050.75	10.953	94.2	0.413	2.305	0.763	-10.655	0.764
10051	10.942	93.246	0.415	2.304	0.763	-10.483	0.766
10051.25	10.921	92.251	0.417	2.304	0.764	-10.293	0.766
10051.5	10.898	91.324	0.419	2.304	0.766	-10.118	0.766
10051.75	10.88	90.588	0.422	2.303	0.768	-9.97	0.766
10052	10.874	90.237	0.423	2.303	0.77	-9.84	0.766
10052.25	10.88	90.388	0.425	2.302	0.772	-9.705	0.767
10052.5	10.897	91.114	0.425	2.302	0.773	-9.542	0.769
10052.75	10.918	92.407	0.424	2.302	0.773	-9.335	0.77
10053	10.937	94.114	0.422	2.302	0.773	-9.086	0.769
10053.25	10.955	95.933	0.421	2.303	0.773	-8.814	0.768
10053.5	10.973	97.518	0.42	2.303	0.772	-8.554	0.765
10053.75	10.99	98.591	0.42	2.304	0.771	-8.344	0.764
10054	11.002	99.091	0.419	2.304	0.77	-8.212	0.764
10054.25	11.004	99.073	0.418	2.305	0.769	-8.168	0.767
10054.5	11.001	98.698	0.416	2.306	0.767	-8.197	0.772
10054.75	11.002	98.044	0.414	2.307	0.766	-8.271	0.778
10055	11.02	97.245	0.412	2.307	0.766	-8.359	0.782
10055.25	11.068	96.482	0.411	2.308	0.765	-8.443	0.783
10055.5	11.156	95.842	0.41	2.309	0.766	-8.52	0.781
10055.75	11.281	95.275	0.409	2.31	0.766	-8.593	0.776
10056	11.427	94.823	0.407	2.31	0.766	-8.657	0.771
10056.25	11.564	94.574	0.405	2.311	0.766	-8.701	0.766
10056.5	11.664	94.656	0.404	2.311	0.766	-8.716	0.764
10056.75	11.712	95.027	0.404	2.312	0.764	-8.708	0.763
10057	11.712	95.511	0.405	2.312	0.762	-8.687	0.763
10057.25	11.677	95.919	0.407	2.312	0.76	-8.67	0.763
10057.5	11.621	96.224	0.409	2.313	0.757	-8.662	0.762
10057.75	11.557	96.332	0.41	2.313	0.755	-8.658	0.761
10058	11.492	96.134	0.411	2.313	0.753	-8.636	0.758
10058.25	11.431	95.693	0.411	2.313	0.752	-8.57	0.755
10058.5	11.378	95.118	0.41	2.314	0.751	-8.449	0.753
10058.75	11.337	94.398	0.409	2.314	0.751	-8.287	0.752
10059	11.312	93.54	0.406	2.315	0.752	-8.128	0.753
10059.25	11.302	92.7	0.402	2.316	0.753	-8.025	0.756
10059.5	11.303	92.15	0.399	2.317	0.754	-8.03	0.759
10059.75	11.309	92.108	0.395	2.319	0.756	-8.163	0.763
10060	11.318	92.552	0.391	2.32	0.758	-8.409	0.767
10060.25	11.328	93.237	0.388	2.321	0.761	-8.715	0.771
10060.5	11.337	94.01	0.385	2.322	0.764	-9.025	0.773
10060.75	11.344	94.815	0.381	2.323	0.767	-9.304	0.775
10061	11.348	95.509	0.378	2.323	0.77	-9.562	0.778
10061.25	11.347	95.906	0.375	2.324	0.773	-9.834	0.781
10061.5	11.339	95.849	0.372	2.324	0.776	-10.149	0.786
10061.75	11.325	95.247	0.369	2.323	0.778	-10.5	0.794
10062	11.306	94.166	0.367	2.323	0.779	-10.842	0.803
10062.25	11.284	92.887	0.367	2.323	0.78	-11.111	0.812
10062.5	11.264	91.823	0.367	2.322	0.781	-11.246	0.82
10062.75	11.259	91.395	0.368	2.321	0.782	-11.217	0.823
10063	11.279	91.769	0.371	2.32	0.783	-11.028	0.821
10063.25	11.323	92.794	0.373	2.319	0.784	-10.71	0.814
10063.5	11.376	94.086	0.377	2.318	0.786	-10.301	0.802
10063.75	11.416	95.343	0.38	2.317	0.787	-9.846	0.789
10064	11.427	96.41	0.384	2.317	0.787	-9.393	0.777
10064.25	11.403	97.185	0.388	2.316	0.786	-8.993	0.767
10064.5	11.352	97.573	0.392	2.315	0.785	-8.693	0.761
10064.75	11.292	97.49	0.395	2.315	0.783	-8.503	0.759
10065	11.242	96.9	0.397	2.314	0.781	-8.403	0.76
10065.25	11.208	95.787	0.397	2.315	0.779	-8.359	0.765
10065.5	11.182	94.242	0.396	2.315	0.778	-8.328	0.772
10065.75	11.15	92.56	0.394	2.317	0.777	-8.269	0.778
10066	11.105	91.174	0.392	2.318	0.777	-8.154	0.783
10066.25	11.047	90.567	0.391	2.32	0.778	-7.974	0.784
10066.5	10.981	91.065	0.393	2.322	0.78	-7.738	0.782
10066.75	10.914	92.56	0.397	2.325	0.783	-7.479	0.774
10067	10.858	94.556	0.402	2.328	0.786	-7.26	0.762
10067.25	10.821	96.38	0.407	2.333	0.79	-7.176	0.746
10067.5	10.806	97.457	0.409	2.337	0.794	-7.341	0.731
10067.75	10.81	97.5	0.408	2.343	0.798	-7.835	0.719
10068	10.826	96.667	0.402	2.348	0.8	-8.643	0.716
10068.25	10.848	95.313	0.392	2.354	0.801	-9.634	0.727
10068.5	10.867	93.756	0.38	2.36	0.8	-10.588	0.752
10068.75	10.877	92.278	0.368	2.365	0.797	-11.256	0.791
10069	10.879	91.144	0.357	2.37	0.793	-11.458	0.836
10069.25	10.872	90.635	0.35	2.373	0.789	-11.13	0.873
10069.5	10.861	91.026	0.349	2.375	0.786	-10.338	0.889
10069.75	10.85	92.478	0.353	2.375	0.784	-9.227	0.879
10070	10.843	94.781	0.362	2.375	0.784	-7.969	0.85
10070.25	10.841	97.307	0.373	2.372	0.785	-6.705	0.817
10070.5	10.844	99.428	0.383	2.369	0.786	-5.519	0.79
10070.75	10.849	100.703	0.39	2.366	0.787	-4.452	0.773
10071	10.854	101.005	0.394	2.362	0.785	-3.516	0.765
10071.25	10.857	100.517	0.396	2.359	0.783	-2.708	0.764
10071.5	10.859	99.519	0.396	2.356	0.778	-2.038	0.766
10071.75	10.86	98.293	0.396	2.354	0.774	-1.533	0.77
10072	10.859	97.169	0.395	2.352	0.769	-1.226	0.776
10072.25	10.857	96.533	0.395	2.351	0.765	-1.124	0.782
10072.5	10.859	96.706	0.394	2.351	0.761	-1.189	0.79
10072.75	10.872	97.689	0.394	2.351	0.757	-1.34	0.796
10073	10.903	99.059	0.394	2.351	0.755	-1.479	0.799
10073.25	10.952	100.083	0.394	2.351	0.753	-1.541	0.798
10073.5	11.016	100.107	0.395	2.351	0.752	-1.509	0.794
10073.75	11.082	98.979	0.395	2.351	0.752	-1.402	0.788
10074	11.138	97.115	0.394	2.351	0.752	-1.26	0.783
10074.25	11.166	95.318	0.393	2.35	0.752	-1.115	0.779
10074.5	11.155	94.366	0.392	2.35	0.752	-0.981	0.779
10074.75	11.105	94.502	0.393	2.349	0.751	-0.856	0.78
10075	11.025	95.422	0.396	2.349	0.75	-0.741	0.781
10075.25	10.933	96.512	0.399	2.349	0.749	-0.644	0.782
10075.5	10.843	97.308	0.403	2.349	0.749	-0.585	0.782
10075.75	10.772	97.718	0.405	2.348	0.749	-0.585	0.78
10076	10.723	97.935	0.406	2.348	0.749	-0.661	0.778
10076.25	10.695	98.135	0.405	2.348	0.749	-0.81	0.777
10076.5	10.679	98.466	0.403	2.348	0.749	-1.006	0.779
10076.75	10.669	98.867	0.401	2.348	0.749	-1.203	0.784
10077	10.662	99.162	0.398	2.348	0.75	-1.346	0.79
10077.25	10.658	99.195	0.396	2.347	0.751	-1.403	0.798
10077.5	10.658	99.013	0.395	2.347	0.754	-1.376	0.803
10077.75	10.662	98.808	0.395	2.347	0.756	-1.303	0.806
10078	10.67	98.813	0.394	2.346	0.759	-1.241	0.805
10078.25	10.681	99.181	0.394	2.346	0.761	-1.232	0.803
10078.5	10.694	99.975	0.394	2.346	0.761	-1.276	0.8
10078.75	10.708	100.982	0.395	2.347	0.761	-1.334	0.799
10079	10.719	101.859	0.396	2.347	0.761	-1.351	0.8
10079.25	10.728	102.225	0.399	2.347	0.76	-1.281	0.803
10079.5	10.734	101.886	0.403	2.348	0.761	-1.117	0.804
10079.75	10.737	101.057	0.407	2.348	0.761	-0.889	0.803
10080	10.738	100.165	0.411	2.348	0.762	-0.646	0.801
10080.25	10.738	99.617	0.415	2.348	0.763	-0.434	0.797
10080.5	10.738	99.646	0.418	2.348	0.763	-0.284	0.792
10080.75	10.736	100.186	0.421	2.348	0.764	-0.198	0.79
10081	10.734	100.871	0.421	2.348	0.764	-0.163	0.788
10081.25	10.733	101.243	0.419	2.347	0.764	-0.173	0.788
10081.5	10.735	101.08	0.417	2.347	0.766	-0.236	0.789
10081.75	10.739	100.404	0.414	2.346	0.767	-0.37	0.79
10082	10.745	99.376	0.413	2.346	0.769	-0.583	0.792
10082.25	10.753	98.201	0.413	2.345	0.77	-0.862	0.794
10082.5	10.759	97.017	0.414	2.345	0.771	-1.179	0.798
10082.75	10.764	95.993	0.414	2.345	0.771	-1.495	0.803
10083	10.766	95.346	0.414	2.345	0.771	-1.773	0.809
10083.25	10.766	95.136	0.414	2.345	0.771	-1.983	0.814
10083.5	10.762	95.328	0.413	2.346	0.771	-2.106	0.818
10083.75	10.752	95.847	0.413	2.346	0.77	-2.143	0.818
10084	10.738	96.469	0.413	2.346	0.77	-2.107	0.816
10084.25	10.72	96.931	0.414	2.346	0.769	-2.038	0.812
10084.5	10.7	97.133	0.416	2.346	0.768	-1.996	0.808
10084.75	10.678	97.125	0.418	2.345	0.767	-2.046	0.802
10085	10.657	97.134	0.419	2.344	0.765	-2.23	0.797
10085.25	10.638	97.418	0.42	2.342	0.762	-2.554	0.791
10085.5	10.619	98.011	0.421	2.34	0.759	-3.011	0.787
10085.75	10.603	98.785	0.421	2.337	0.756	-3.582	0.784
10086	10.59	99.603	0.421	2.335	0.752	-4.241	0.782
10086.25	10.579	100.349	0.421	2.332	0.748	-4.946	0.779
10086.5	10.572	100.895	0.421	2.329	0.745	-5.639	0.774
10086.75	10.568	101.163	0.423	2.327	0.741	-6.253	0.766
10087	10.566	101.056	0.426	2.324	0.738	-6.726	0.755
10087.25	10.566	100.706	0.429	2.322	0.735	-7.022	0.744
10087.5	10.566	100.42	0.433	2.32	0.732	-7.143	0.734
10087.75	10.567	100.481	0.436	2.319	0.728	-7.125	0.727
10088	10.569	100.915	0.437	2.317	0.723	-7.02	0.723
10088.25	10.571	101.536	0.438	2.315	0.719	-6.874	0.719
10088.5	10.574	102.046	0.438	2.313	0.716	-6.719	0.716
10088.75	10.578	102.181	0.437	2.311	0.715	-6.587	0.713
10089	10.58	101.907	0.436	2.31	0.715	-6.51	0.711
10089.25	10.582	101.43	0.434	2.308	0.717	-6.512	0.713
10089.5	10.583	100.892	0.431	2.307	0.72	-6.605	0.717
10089.75	10.582	100.303	0.428	2.306	0.724	-6.779	0.725
10090	10.58	99.571	0.423	2.305	0.727	-7.014	0.735
10090.25	10.579	98.61	0.418	2.305	0.729	-7.29	0.744
10090.5	10.58	97.568	0.412	2.305	0.731	-7.592	0.753
10090.75	10.585	96.739	0.408	2.306	0.732	-7.894	0.761
10091	10.594	96.257	0.405	2.306	0.733	-8.166	0.767
10091.25	10.607	96.084	0.405	2.308	0.735	-8.383	0.772
10091.5	10.623	96.118	0.407	2.309	0.738	-8.522	0.776
10091.75	10.644	96.287	0.411	2.31	0.741	-8.573	0.778
10092	10.672	96.569	0.417	2.311	0.746	-8.545	0.776
10092.25	10.706	97.01	0.422	2.312	0.75	-8.474	0.771
